Optical constants of c-CdS at 300K (source Adachi)
e(eV) λ(nm) ε1 ε2 n k α(cm-1) R
0.6 2066 5.314 0 2.305 0 0 0.156
0.8 1549 5.356 0 2.314 0 0 0.157
1.0 1240 5.421 0 2.328 0 0 0.159
1.2 1033 5.510 0 2.347 0 0 0.162
1.4 885.4 5.628 0 2.372 0 0 0.166
1.6 774.7 5.778 0 2.404 0 0 0.170
1.8 688.6 5.964 0 2.442 0 0 0.176
2.0 619.8 6.188 0 2.487 0 0 0.182
2.02 613.6 6.220 0 2.494 0 0 0.183
2.04 607.6 6.264 0 2.503 0 0 0.184
2.06 601.7 6.330 0 2.516 0 0 0.186
2.08 595.9 6.367 0 2.523 0 0 0.187
2.10 590.2 6.420 0 2.534 0 0 0.188
2.12 584.7 6.461 0 2.542 0 0 0.190
2.14 579.2 6.510 0 2.551 0 0 0.191
2.16 573.8 6.567 0 2.563 0 0 0.192
2.18 568.6 6.613 0 2.572 0 0 0.194
2.20 563.4 6.689 0 2.586 0 0 0.196
2.22 558.3 6.757 0 2.599 0 0 0.197
2.24 553.3 6.834 0 2.614 0 0 0.199
2.26 548.5 6.919 0 2.630 0 0 0.202
2.28 543.6 7.023 0 2.650 0 0 0.204
2.30 538.9 7.143 0 2.673 0 0 0.207
2.32 534.3 7.308 0 2.703 0 0 0.212
2.34 529.7 7.503 0 2.739 0 0 0.216
2.36 525.2 7.742 0.462 2.784 0.083 1.99e+04 0.223
2.38 520.8 7.962 0.721 2.825 0.128 3.08e+04 0.228
2.40 516.5 8.068 1.047 2.846 0.184 4.48e+04 0.232
2.42 512.2 8.091 1.410 2.855 0.247 6.06e+04 0.235
2.44 508.0 8.005 1.732 2.846 0.304 7.53e+04 0.235
2.46 503.9 7.824 1.982 2.819 0.352 8.77e+04 0.233
2.48 499.8 7.610 2.140 2.785 0.384 9.66e+04 0.230
2.50 495.8 7.391 2.232 2.749 0.406 1.03e+05 0.227
2.52 491.9 7.207 2.237 2.716 0.412 1.05e+05 0.223
2.54 488.0 7.074 2.283 2.693 0.424 1.09e+05 0.220
2.56 484.2 6.959 2.282 2.672 0.427 1.11e+05 0.218
2.58 480.4 6.880 2.230 2.656 0.420 1.10e+05 0.216
2.60 476.7 6.815 2.254 2.645 0.426 1.12e+05 0.214
2.62 473.1 6.761 2.243 2.635 0.426 1.13e+05 0.213
2.64 469.5 6.721 2.230 2.627 0.424 1.14e+05 0.212
2.66 466.0 6.693 2.180 2.620 0.416 1.12e+05 0.211
2.68 462.5 6.656 2.210 2.614 0.423 1.15e+05 0.210
2.70 459.1 6.636 2.237 2.611 0.428 1.17e+05 0.210
2.72 455.7 6.610 2.241 2.607 0.430 1.19e+05 0.210
2.74 452.4 6.586 2.264 2.603 0.435 1.21e+05 0.209
2.76 449.1 6.575 2.225 2.600 0.428 1.20e+05 0.209
2.78 445.9 6.547 2.264 2.596 0.436 1.23e+05 0.209
2.80 442.7 6.538 2.246 2.593 0.433 1.23e+05 0.208
2.82 439.5 6.521 2.265 2.591 0.437 1.25e+05 0.208
2.84 436.4 6.504 2.269 2.588 0.438 1.26e+05 0.208
2.86 433.4 6.494 2.288 2.586 0.442 1.28e+05 0.208
2.88 430.4 6.483 2.300 2.585 0.445 1.30e+05 0.208
2.90 427.4 6.471 2.318 2.583 0.449 1.32e+05 0.208
2.92 424.5 6.463 2.319 2.582 0.449 1.33e+05 0.207
2.94 421.6 6.458 2.336 2.581 0.453 1.35e+05 0.208
2.96 418.8 6.450 2.345 2.580 0.455 1.36e+05 0.208
2.98 415.9 6.440 2.364 2.579 0.458 1.38e+05 0.208
3.00 413.2 6.435 2.376 2.578 0.461 1.40e+05 0.208
3.02 410.4 6.423 2.400 2.577 0.466 1.43e+05 0.208
3.04 407.7 6.408 2.414 2.574 0.469 1.45e+05 0.208
3.06 405.1 6.406 2.427 2.575 0.471 1.46e+05 0.208
3.08 402.4 6.387 2.460 2.572 0.478 1.49e+05 0.208
3.10 399.8 6.376 2.464 2.570 0.479 1.51e+05 0.208
3.12 397.3 6.362 2.476 2.568 0.482 1.52e+05 0.208
3.14 394.7 6.353 2.488 2.567 0.485 1.54e+05 0.208
3.16 392.2 6.359 2.484 2.568 0.484 1.55e+05 0.208
3.18 389.8 6.369 2.493 2.570 0.485 1.56e+05 0.208
3.20 387.3 6.380 2.516 2.573 0.489 1.59e+05 0.209
3.22 384.9 6.395 2.549 2.577 0.495 1.61e+05 0.209
3.24 382.6 6.389 2.580 2.577 0.501 1.64e+05 0.210
3.26 380.2 6.384 2.605 2.577 0.505 1.67e+05 0.210
3.28 377.9 6.389 2.624 2.578 0.509 1.69e+05 0.211
3.30 375.6 6.385 2.644 2.578 0.513 1.72e+05 0.211
3.32 373.3 6.394 2.667 2.581 0.517 1.74e+05 0.211
3.34 371.1 6.401 2.697 2.583 0.522 1.77e+05 0.212
3.36 368.9 6.403 2.726 2.585 0.527 1.80e+05 0.212
3.38 366.7 6.433 2.740 2.591 0.529 1.81e+05 0.213
3.40 364.6 6.407 2.784 2.588 0.538 1.85e+05 0.214
3.42 362.4 6.405 2.814 2.589 0.544 1.88e+05 0.214
3.44 360.3 6.412 2.840 2.591 0.548 1.91e+05 0.215
3.46 358.2 6.406 2.867 2.591 0.553 1.94e+05 0.215
3.48 356.2 6.410 2.892 2.592 0.558 1.97e+05 0.215
3.50 354.1 6.409 2.921 2.594 0.563 2.00e+05 0.216
3.52 352.1 6.411 2.949 2.595 0.568 2.03e+05 0.216
3.54 350.1 6.407 2.977 2.595 0.574 2.06e+05 0.217
3.56 348.2 6.406 3.006 2.596 0.579 2.09e+05 0.217
3.58 346.2 6.400 3.038 2.597 0.585 2.12e+05 0.218
3.60 344.3 6.406 3.064 2.599 0.590 2.15e+05 0.218
3.62 342.4 6.403 3.090 2.599 0.594 2.18e+05 0.219
3.64 340.5 6.406 3.121 2.601 0.600 2.21e+05 0.219
3.66 338.7 6.407 3.149 2.602 0.605 2.24e+05 0.220
3.68 336.8 6.408 3.176 2.604 0.610 2.28e+05 0.220
3.70 335.0 6.410 3.205 2.605 0.615 2.31e+05 0.221
3.72 333.2 6.404 3.236 2.606 0.621 2.34e+05 0.221
3.74 331.4 6.403 3.268 2.607 0.627 2.38e+05 0.222
3.76 329.7 6.403 3.298 2.608 0.632 2.41e+05 0.223
3.78 327.9 6.405 3.332 2.610 0.638 2.45e+05 0.223
3.80 326.2 6.409 3.360 2.612 0.643 2.48e+05 0.224
3.82 324.5 6.414 3.394 2.614 0.649 2.51e+05 0.225
3.84 322.8 6.410 3.426 2.615 0.655 2.55e+05 0.225
3.86 321.1 6.405 3.462 2.616 0.662 2.59e+05 0.226
3.88 319.5 6.406 3.496 2.618 0.668 2.63e+05 0.226
3.90 317.8 6.406 3.529 2.619 0.674 2.66e+05 0.227
3.92 316.2 6.409 3.565 2.621 0.680 2.70e+05 0.228
3.94 314.6 6.411 3.598 2.623 0.686 2.74e+05 0.228
3.96 313.0 6.406 3.636 2.624 0.693 2.78e+05 0.229
3.98 311.4 6.409 3.671 2.626 0.699 2.82e+05 0.230
4.00 309.9 6.409 3.709 2.628 0.706 2.86e+05 0.230
4.02 308.3 6.410 3.749 2.630 0.713 2.90e+05 0.231
4.04 306.8 6.408 3.787 2.632 0.720 2.95e+05 0.232
4.06 305.3 6.415 3.828 2.635 0.726 2.99e+05 0.233
4.08 303.8 6.416 3.868 2.637 0.733 3.03e+05 0.234
4.10 302.3 6.419 3.909 2.640 0.740 3.08e+05 0.235
4.12 300.8 6.422 3.954 2.642 0.748 3.13e+05 0.236
4.14 299.4 6.415 3.997 2.643 0.756 3.17e+05 0.236
4.16 298.0 6.420 4.042 2.646 0.764 3.22e+05 0.237
4.18 296.5 6.418 4.088 2.648 0.772 3.27e+05 0.238
4.20 295.1 6.415 4.136 2.650 0.780 3.32e+05 0.239
4.22 293.7 6.407 4.184 2.651 0.789 3.38e+05 0.240
4.24 292.3 6.410 4.233 2.654 0.797 3.43e+05 0.241
4.26 291.0 6.411 4.287 2.657 0.807 3.48e+05 0.242
4.28 289.6 6.403 4.339 2.659 0.816 3.54e+05 0.243
4.30 288.3 6.412 4.393 2.663 0.825 3.60e+05 0.244
4.32 286.9 6.411 4.449 2.666 0.834 3.65e+05 0.246
4.34 285.6 6.409 4.508 2.669 0.845 3.72e+05 0.247
4.36 284.3 6.400 4.569 2.671 0.855 3.78e+05 0.248
4.38 283.0 6.401 4.634 2.674 0.866 3.85e+05 0.249
4.40 281.7 6.401 4.697 2.678 0.877 3.91e+05 0.251
4.42 280.4 6.391 4.769 2.680 0.890 3.99e+05 0.252
4.44 279.2 6.386 4.837 2.683 0.901 4.06e+05 0.254
4.46 277.9 6.379 4.911 2.686 0.914 4.13e+05 0.255
4.48 276.7 6.379 4.982 2.690 0.926 4.21e+05 0.257
4.50 275.4 6.376 5.062 2.694 0.939 4.29e+05 0.258
4.52 274.2 6.369 5.143 2.698 0.953 4.37e+05 0.260
4.54 273.0 6.352 5.223 2.700 0.967 4.45e+05 0.262
4.56 271.8 6.333 5.312 2.702 0.983 4.54e+05 0.263
4.58 270.6 6.308 5.403 2.703 0.999 4.64e+05 0.265
4.60 269.5 6.274 5.499 2.703 1.017 4.74e+05 0.267
4.62 268.3 6.227 5.593 2.701 1.035 4.85e+05 0.269
4.64 267.1 6.170 5.697 2.699 1.055 4.97e+05 0.270
4.66 266.0 6.127 5.798 2.698 1.074 5.08e+05 0.272
4.68 264.9 6.080 5.908 2.698 1.095 5.20e+05 0.274
4.70 263.7 6.042 6.014 2.699 1.114 5.31e+05 0.277
4.72 262.6 5.999 6.122 2.699 1.134 5.43e+05 0.279
4.74 261.5 5.933 6.241 2.697 1.157 5.56e+05 0.281
4.76 260.4 5.880 6.357 2.696 1.179 5.69e+05 0.283
4.78 259.3 5.783 6.485 2.690 1.205 5.84e+05 0.286
4.80 258.2 5.705 6.605 2.686 1.229 5.98e+05 0.288
4.82 257.2 5.583 6.737 2.677 1.258 6.15e+05 0.291
4.84 256.1 5.490 6.856 2.672 1.283 6.30e+05 0.294
4.86 255.0 5.343 6.973 2.658 1.312 6.46e+05 0.296
4.88 254.0 5.216 7.085 2.647 1.338 6.62e+05 0.298
4.90 253.0 5.040 7.210 2.630 1.371 6.81e+05 0.301
4.92 251.9 4.851 7.313 2.610 1.401 6.99e+05 0.304
4.94 250.9 4.658 7.400 2.589 1.429 7.16e+05 0.306
4.96 249.9 4.424 7.471 2.560 1.459 7.34e+05 0.308
4.98 248.9 4.189 7.532 2.531 1.488 7.51e+05 0.310
5.00 247.9 3.923 7.568 2.495 1.517 7.69e+05 0.312
5.02 246.9 3.679 7.577 2.460 1.540 7.84e+05 0.314
5.04 245.9 3.437 7.566 2.423 1.561 7.98e+05 0.315
5.06 245.0 3.183 7.522 2.382 1.579 8.10e+05 0.316
5.08 244.0 3.020 7.472 2.354 1.587 8.18e+05 0.316
5.10 243.0 2.767 7.353 2.305 1.595 8.25e+05 0.315
5.12 242.1 2.619 7.246 2.272 1.595 8.28e+05 0.314
5.14 241.1 2.374 7.037 2.214 1.590 8.28e+05 0.311
5.16 240.2 2.284 6.888 2.184 1.577 8.25e+05 0.308
5.18 239.3 2.110 6.641 2.131 1.558 8.18e+05 0.303
5.20 238.4 2.068 6.428 2.100 1.530 8.07e+05 0.297
5.22 237.5 1.942 6.170 2.051 1.504 7.96e+05 0.291
5.24 236.5 1.895 5.924 2.014 1.470 7.81e+05 0.284
5.26 235.6 1.820 5.679 1.973 1.439 7.68e+05 0.277
5.28 234.8 1.749 5.421 1.929 1.405 7.52e+05 0.269
5.30 233.9 1.916 5.367 1.951 1.375 7.39e+05 0.264
5.32 233.0 1.950 5.240 1.942 1.349 7.28e+05 0.258
5.34 232.1 1.986 5.108 1.932 1.322 7.16e+05 0.253
5.36 231.3 2.081 5.043 1.941 1.299 7.06e+05 0.249
5.38 230.4 2.314 5.057 1.984 1.274 6.95e+05 0.246
5.40 229.5 2.254 4.930 1.959 1.258 6.89e+05 0.242
5.42 228.7 2.330 4.903 1.970 1.245 6.84e+05 0.240
5.44 227.8 2.495 4.891 1.998 1.224 6.75e+05 0.238
5.46 227.0 2.704 4.882 2.035 1.199 6.64e+05 0.236
5.48 226.2 3.218 4.856 2.126 1.142 6.34e+05 0.232
5.50 225.4 3.324 4.813 2.142 1.124 6.27e+05 0.230
30.00 41.32 0.6882 2.16e-01 0.8394 1.28e-01 3.90e+05 1.24e-02
30.88 40.13 0.7099 2.06e-01 0.8512 1.21e-01 3.79e+05 1.07e-02
31.79 38.98 0.7278 1.99e-01 0.8609 1.15e-01 3.72e+05 9.40e-03
32.73 37.87 0.7446 1.92e-01 0.8699 1.10e-01 3.65e+05 8.28e-03
33.70 36.78 0.7602 1.85e-01 0.8783 1.05e-01 3.60e+05 7.33e-03
34.69 35.73 0.7744 1.80e-01 0.8858 1.02e-01 3.57e+05 6.54e-03
35.71 34.71 0.7871 1.75e-01 0.8926 9.80e-02 3.55e+05 5.89e-03
36.76 33.72 0.7985 1.70e-01 0.8986 9.46e-02 3.53e+05 5.32e-03
37.85 32.75 0.8094 1.65e-01 0.9043 9.14e-02 3.51e+05 4.82e-03
38.96 31.81 0.8195 1.61e-01 0.9096 8.84e-02 3.49e+05 4.37e-03
40.11 30.90 0.8290 1.57e-01 0.9145 8.56e-02 3.48e+05 3.99e-03
41.29 30.02 0.8378 1.53e-01 0.9191 8.32e-02 3.48e+05 3.65e-03
42.51 29.16 0.8458 1.50e-01 0.9233 8.10e-02 3.49e+05 3.36e-03
43.76 28.32 0.8531 1.46e-01 0.9270 7.90e-02 3.51e+05 3.11e-03
45.05 27.51 0.8593 1.44e-01 0.9302 7.73e-02 3.53e+05 2.90e-03
46.38 26.72 0.8646 1.41e-01 0.9329 7.55e-02 3.55e+05 2.73e-03
47.75 25.96 0.8689 1.38e-01 0.9351 7.37e-02 3.57e+05 2.57e-03
49.15 25.22 0.8733 1.34e-01 0.9372 7.15e-02 3.56e+05 2.41e-03
50.60 24.49 0.8775 1.30e-01 0.9393 6.95e-02 3.56e+05 2.26e-03
52.09 23.79 0.8810 1.27e-01 0.9410 6.74e-02 3.56e+05 2.13e-03
53.63 23.11 0.8844 1.23e-01 0.9427 6.54e-02 3.55e+05 2.00e-03
55.21 22.45 0.8874 1.19e-01 0.9442 6.33e-02 3.54e+05 1.88e-03
56.84 21.81 0.8904 1.16e-01 0.9456 6.12e-02 3.53e+05 1.77e-03
58.51 21.18 0.8931 1.12e-01 0.9469 5.92e-02 3.51e+05 1.67e-03
60.24 20.58 0.8955 1.08e-01 0.9480 5.72e-02 3.49e+05 1.57e-03
62.01 19.99 0.8977 1.05e-01 0.9491 5.52e-02 3.47e+05 1.48e-03
63.84 19.42 0.8991 1.01e-01 0.9497 5.32e-02 3.44e+05 1.41e-03
65.72 18.86 0.9006 9.64e-02 0.9504 5.07e-02 3.38e+05 1.32e-03
67.66 18.32 0.9026 9.19e-02 0.9513 4.83e-02 3.31e+05 1.24e-03
69.65 17.80 0.9046 8.75e-02 0.9522 4.59e-02 3.24e+05 1.15e-03
71.71 17.29 0.9067 8.31e-02 0.9532 4.36e-02 3.17e+05 1.07e-03
73.82 16.79 0.9088 7.88e-02 0.9542 4.13e-02 3.09e+05 9.95e-04
75.99 16.31 0.9110 7.47e-02 0.9552 3.91e-02 3.01e+05 9.23e-04
78.23 15.84 0.9130 7.08e-02 0.9562 3.70e-02 2.94e+05 8.59e-04
80.54 15.39 0.9149 6.68e-02 0.9571 3.49e-02 2.85e+05 7.97e-04
82.91 14.95 0.9169 6.30e-02 0.9581 3.29e-02 2.76e+05 7.39e-04
85.36 14.52 0.9187 5.94e-02 0.9590 3.10e-02 2.68e+05 6.88e-04
87.87 14.11 0.9201 5.57e-02 0.9596 2.90e-02 2.58e+05 6.43e-04
90.46 13.70 0.9217 5.17e-02 0.9604 2.69e-02 2.47e+05 5.95e-04
93.13 13.31 0.9232 4.79e-02 0.9611 2.49e-02 2.36e+05 5.54e-04
95.87 12.93 0.9247 4.35e-02 0.9619 2.26e-02 2.20e+05 5.10e-04
98.70 12.56 0.9266 3.93e-02 0.9628 2.04e-02 2.04e+05 4.68e-04
101.6 12.20 0.9279 3.48e-02 0.9635 1.80e-02 1.86e+05 4.31e-04
104.6 11.85 0.9306 2.94e-02 0.9648 1.53e-02 1.62e+05 3.81e-04
107.7 11.51 0.9341 2.50e-02 0.9666 1.29e-02 1.41e+05 3.32e-04
110.9 11.18 0.9378 2.12e-02 0.9684 1.09e-02 1.23e+05 2.88e-04
114.1 10.86 0.9412 1.78e-02 0.9702 9.15e-03 1.06e+05 2.51e-04
117.5 10.55 0.9451 1.43e-02 0.9722 7.37e-03 8.78e+04 2.13e-04
121.0 10.25 0.9492 1.16e-02 0.9743 5.94e-03 7.29e+04 1.78e-04
124.5 9.955 0.9534 9.41e-03 0.9765 4.82e-03 6.08e+04 1.48e-04
128.2 9.670 0.9576 8.01e-03 0.9786 4.09e-03 5.32e+04 1.22e-04
132.0 9.393 0.9611 6.97e-03 0.9804 3.55e-03 4.75e+04 1.01e-04
135.9 9.124 0.9643 6.06e-03 0.9820 3.09e-03 4.25e+04 8.48e-05
139.9 8.863 0.9674 5.00e-03 0.9836 2.54e-03 3.61e+04 7.01e-05
144.0 8.609 0.9708 4.15e-03 0.9853 2.11e-03 3.08e+04 5.61e-05
148.2 8.362 0.9741 3.63e-03 0.9869 1.84e-03 2.76e+04 4.40e-05
152.6 8.123 0.9774 3.32e-03 0.9886 1.68e-03 2.60e+04 3.34e-05
157.1 7.891 0.9813 3.08e-03 0.9906 1.56e-03 2.48e+04 2.29e-05
161.7 7.665 0.9921 2.92e-03 0.9961 1.47e-03 2.40e+04 4.44e-06
166.5 7.445 0.9850 1.25e-02 0.9925 6.28e-03 1.06e+05 2.41e-05
171.4 7.232 0.9837 1.19e-02 0.9918 6.00e-03 1.04e+05 2.59e-05
176.4 7.025 0.9835 1.14e-02 0.9917 5.75e-03 1.03e+05 2.55e-05
181.6 6.824 0.9837 1.09e-02 0.9918 5.48e-03 1.01e+05 2.44e-05
187.0 6.629 0.9841 1.03e-02 0.9920 5.21e-03 9.88e+04 2.29e-05
192.5 6.439 0.9846 9.83e-03 0.9923 4.95e-03 9.67e+04 2.13e-05
198.2 6.254 0.9851 9.33e-03 0.9925 4.70e-03 9.45e+04 1.96e-05
204.0 6.075 0.9856 8.86e-03 0.9928 4.46e-03 9.23e+04 1.80e-05
210.0 5.901 0.9862 8.39e-03 0.9931 4.23e-03 9.00e+04 1.65e-05
216.2 5.733 0.9869 8.01e-03 0.9934 4.03e-03 8.83e+04 1.50e-05
222.6 5.568 0.9874 7.66e-03 0.9937 3.85e-03 8.70e+04 1.37e-05
229.2 5.409 0.9880 7.33e-03 0.9940 3.69e-03 8.57e+04 1.26e-05
235.9 5.254 0.9884 7.00e-03 0.9942 3.52e-03 8.42e+04 1.15e-05
242.9 5.104 0.9889 6.66e-03 0.9945 3.35e-03 8.24e+04 1.06e-05
250.0 4.958 0.9894 6.34e-03 0.9947 3.19e-03 8.07e+04 9.65e-06
257.4 4.816 0.9898 6.03e-03 0.9949 3.03e-03 7.91e+04 8.82e-06
265.0 4.678 0.9902 5.74e-03 0.9951 2.88e-03 7.74e+04 8.08e-06
272.8 4.544 0.9906 5.43e-03 0.9953 2.73e-03 7.55e+04 7.42e-06
280.8 4.414 0.9910 5.09e-03 0.9955 2.56e-03 7.28e+04 6.78e-06
289.1 4.287 0.9914 4.72e-03 0.9957 2.37e-03 6.95e+04 6.11e-06
297.6 4.165 0.9918 4.38e-03 0.9959 2.20e-03 6.64e+04 5.48e-06
306.4 4.046 0.9922 4.07e-03 0.9961 2.04e-03 6.34e+04 4.88e-06
315.4 3.930 0.9926 3.77e-03 0.9963 1.89e-03 6.05e+04 4.34e-06
324.7 3.817 0.9930 3.49e-03 0.9965 1.75e-03 5.77e+04 3.83e-06
334.3 3.708 0.9934 3.24e-03 0.9967 1.62e-03 5.50e+04 3.37e-06
344.1 3.602 0.9938 3.00e-03 0.9969 1.50e-03 5.25e+04 2.95e-06
354.3 3.499 0.9943 2.78e-03 0.9971 1.40e-03 5.01e+04 2.56e-06
364.7 3.399 0.9947 2.58e-03 0.9973 1.29e-03 4.79e+04 2.21e-06
375.5 3.301 0.9951 2.40e-03 0.9975 1.20e-03 4.57e+04 1.88e-06
386.5 3.207 0.9955 2.25e-03 0.9977 1.13e-03 4.42e+04 1.59e-06
397.9 3.115 0.9959 2.11e-03 0.9980 1.06e-03 4.27e+04 1.32e-06
409.7 3.026 0.9965 1.98e-03 0.9982 9.91e-04 4.12e+04 1.03e-06
421.7 2.939 0.9970 2.10e-03 0.9985 1.05e-03 4.49e+04 8.41e-07
434.2 2.855 0.9974 2.29e-03 0.9987 1.15e-03 5.04e+04 7.43e-07
447.0 2.773 0.9978 2.57e-03 0.9989 1.28e-03 5.82e+04 7.22e-07
460.1 2.694 0.9980 2.94e-03 0.9990 1.47e-03 6.88e+04 7.91e-07
473.7 2.617 0.9980 3.44e-03 0.9990 1.72e-03 8.27e+04 9.92e-07
487.6 2.542 0.9976 3.75e-03 0.9988 1.88e-03 9.27e+04 1.24e-06
502.0 2.469 0.9972 3.60e-03 0.9986 1.80e-03 9.16e+04 1.30e-06
516.8 2.398 0.9970 3.39e-03 0.9985 1.70e-03 8.89e+04 1.27e-06
532.0 2.330 0.9970 3.12e-03 0.9985 1.56e-03 8.43e+04 1.19e-06
547.7 2.263 0.9970 2.86e-03 0.9985 1.43e-03 7.96e+04 1.09e-06
563.9 2.198 0.9971 2.66e-03 0.9985 1.33e-03 7.60e+04 9.84e-07
580.5 2.135 0.9971 2.50e-03 0.9986 1.25e-03 7.38e+04 9.07e-07
597.6 2.074 0.9972 2.36e-03 0.9986 1.18e-03 7.16e+04 8.39e-07
615.2 2.015 0.9973 2.23e-03 0.9986 1.11e-03 6.95e+04 7.76e-07
633.3 1.957 0.9973 2.09e-03 0.9987 1.05e-03 6.73e+04 7.17e-07
652.0 1.901 0.9974 1.97e-03 0.9987 9.84e-04 6.51e+04 6.61e-07
671.2 1.847 0.9975 1.85e-03 0.9987 9.25e-04 6.29e+04 6.09e-07
691.0 1.794 0.9976 1.73e-03 0.9988 8.68e-04 6.08e+04 5.62e-07
711.4 1.742 0.9976 1.62e-03 0.9988 8.12e-04 5.86e+04 5.17e-07
732.3 1.693 0.9977 1.52e-03 0.9989 7.59e-04 5.64e+04 4.75e-07
753.9 1.644 0.9978 1.42e-03 0.9989 7.09e-04 5.42e+04 4.37e-07
776.1 1.597 0.9978 1.31e-03 0.9989 6.58e-04 5.18e+04 4.00e-07
799.0 1.551 0.9979 1.22e-03 0.9990 6.10e-04 4.94e+04 3.66e-07
822.5 1.507 0.9980 1.13e-03 0.99899 5.64e-04 4.70e+04 3.36e-07
846.8 1.464 0.9980 1.03e-03 0.99902 5.14e-04 4.42e+04 3.04e-07
871.7 1.422 0.9981 9.39e-04 0.99906 4.70e-04 4.15e+04 2.75e-07
897.4 1.381 0.9982 8.58e-04 0.99910 4.29e-04 3.91e+04 2.47e-07
923.9 1.342 0.9983 7.84e-04 0.99914 3.92e-04 3.67e+04 2.23e-07
951.1 1.303 0.9984 7.15e-04 0.99918 3.58e-04 3.45e+04 2.00e-07
979.1 1.266 0.9984 6.52e-04 0.99922 3.26e-04 3.24e+04 1.80e-07
1008 1.230 0.9985 5.94e-04 0.99925 2.97e-04 3.04e+04 1.61e-07
1038 1.194 0.9986 5.40e-04 0.99929 2.70e-04 2.84e+04 1.44e-07
1068 1.160 0.9987 4.90e-04 0.99933 2.45e-04 2.65e+04 1.29e-07
1100 1.127 0.9987 4.44e-04 0.99936 2.22e-04 2.48e+04 1.15e-07
1132 1.095 0.9988 4.03e-04 0.99939 2.02e-04 2.31e+04 1.03e-07
1166 1.063 0.9988 3.65e-04 0.99942 1.83e-04 2.16e+04 9.14e-08
1200 1.033 0.9989 3.31e-04 0.99945 1.66e-04 2.02e+04 8.14e-08
1235 1.003 0.9990 3.01e-04 0.99948 1.50e-04 1.88e+04 7.24e-08
1272 0.9747 0.99902 2.73e-04 0.99951 1.36e-04 1.76e+04 6.44e-08
1309 0.9468 0.99908 2.47e-04 0.99954 1.24e-04 1.64e+04 5.73e-08
1348 0.9197 0.99913 2.24e-04 0.99956 1.12e-04 1.53e+04 5.09e-08
1387 0.8934 0.99917 2.04e-04 0.99959 1.02e-04 1.43e+04 4.52e-08
1428 0.8678 0.99922 1.85e-04 0.99961 9.24e-05 1.34e+04 4.02e-08
1470 0.8429 0.99926 1.68e-04 0.99963 8.38e-05 1.25e+04 3.57e-08
1514 0.8188 0.99931 1.52e-04 0.99965 7.62e-05 1.17e+04 3.16e-08
1558 0.7954 0.99934 1.39e-04 0.99967 6.93e-05 1.10e+04 2.81e-08
1604 0.7726 0.99938 1.26e-04 0.99969 6.31e-05 1.03e+04 2.49e-08
1652 0.7505 0.99942 1.15e-04 0.99971 5.74e-05 9.61e+03 2.21e-08
1700 0.7290 0.99945 1.04e-04 0.99972 5.23e-05 9.01e+03 1.97e-08
1750 0.7081 0.99948 9.50e-05 0.99974 4.75e-05 8.43e+03 1.75e-08
1802 0.6879 0.99951 8.61e-05 0.99975 4.31e-05 7.87e+03 1.55e-08
1855 0.6682 0.99954 7.81e-05 0.99977 3.91e-05 7.34e+03 1.37e-08
1910 0.6490 0.99956 7.08e-05 0.99978 3.54e-05 6.85e+03 1.22e-08
1966 0.6305 0.99959 6.42e-05 0.99979 3.21e-05 6.40e+03 1.08e-08
2024 0.6124 0.99961 5.82e-05 0.99981 2.91e-05 5.98e+03 9.53e-09
2084 0.5949 0.99964 5.27e-05 0.99982 2.63e-05 5.56e+03 8.43e-09
2145 0.5778 0.99966 4.76e-05 0.99983 2.38e-05 5.17e+03 7.44e-09
2208 0.5613 0.99968 4.29e-05 0.99984 2.15e-05 4.81e+03 6.56e-09
2273 0.5452 0.99970 3.87e-05 0.99985 1.94e-05 4.46e+03 5.76e-09
2340 0.5296 0.99972 3.49e-05 0.99986 1.74e-05 4.14e+03 5.03e-09
2409 0.5145 0.99974 3.14e-05 0.99987 1.57e-05 3.83e+03 4.33e-09
2480 0.4997 0.99978 4.49e-05 0.99989 2.25e-05 5.65e+03 3.23e-09
2553 0.4854 0.99977 4.05e-05 0.99988 2.02e-05 5.24e+03 3.52e-09
2629 0.4715 0.99978 3.64e-05 0.99989 1.82e-05 4.86e+03 3.21e-09
2706 0.4580 0.99979 3.28e-05 0.99989 1.64e-05 4.49e+03 2.88e-09
2786 0.4449 0.99980 2.94e-05 0.99990 1.47e-05 4.15e+03 2.57e-09
2868 0.4322 0.99981 2.64e-05 0.999905 1.32e-05 3.84e+03 2.28e-09
2953 0.4198 0.99982 2.36e-05 0.999911 1.18e-05 3.54e+03 2.02e-09
3040 0.4078 0.99983 2.11e-05 0.999916 1.06e-05 3.26e+03 1.78e-09
3129 0.3961 0.99984 1.89e-05 0.999922 9.44e-06 3.00e+03 1.56e-09
3221 0.3848 0.99985 1.68e-05 0.999927 8.42e-06 2.75e+03 1.35e-09
3316 0.3738 0.99986 1.50e-05 0.999932 7.50e-06 2.52e+03 1.16e-09
3414 0.3631 0.99988 1.33e-05 0.999938 6.66e-06 2.31e+03 9.71e-10
3515 0.3527 0.99991 1.18e-05 0.999953 5.91e-06 2.11e+03 5.56e-10
3618 0.3426 0.99989 2.76e-05 0.999947 1.38e-05 5.06e+03 7.59e-10
3725 0.3328 0.99991 2.49e-05 0.999953 1.25e-05 4.71e+03 5.94e-10
3835 0.3232 0.99990 2.93e-05 0.999949 1.47e-05 5.70e+03 7.05e-10
3948 0.3140 0.999901 2.64e-05 0.999951 1.32e-05 5.29e+03 6.55e-10
4064 0.3050 0.999905 2.72e-05 0.999953 1.36e-05 5.60e+03 6.07e-10
4184 0.2963 0.999907 2.46e-05 0.999954 1.23e-05 5.21e+03 5.74e-10
4307 0.2878 0.999911 2.22e-05 0.999955 1.11e-05 4.84e+03 5.27e-10
4434 0.2795 0.999915 2.00e-05 0.999957 1.00e-05 4.50e+03 4.81e-10
4565 0.2715 0.999918 1.81e-05 0.999959 9.03e-06 4.18e+03 4.36e-10
4699 0.2638 0.999922 1.63e-05 0.999961 8.14e-06 3.88e+03 3.94e-10
4838 0.2562 0.999926 1.47e-05 0.999963 7.34e-06 3.60e+03 3.55e-10
4980 0.2489 0.999930 1.32e-05 0.999965 6.61e-06 3.34e+03 3.19e-10
5127 0.2418 0.999933 1.19e-05 0.999967 5.95e-06 3.09e+03 2.86e-10
5278 0.2348 0.999937 1.07e-05 0.999968 5.36e-06 2.87e+03 2.57e-10
5434 0.2281 0.999940 9.65e-06 0.999970 4.83e-06 2.66e+03 2.30e-10
5594 0.2216 0.999943 8.68e-06 0.999972 4.34e-06 2.46e+03 2.05e-10
5759 0.2152 0.999946 7.81e-06 0.999973 3.91e-06 2.28e+03 1.84e-10
5928 0.2091 0.999949 7.03e-06 0.999975 3.51e-06 2.11e+03 1.64e-10
6103 0.2031 0.999952 6.32e-06 0.999976 3.16e-06 1.95e+03 1.46e-10
6283 0.1973 0.999955 5.68e-06 0.999977 2.84e-06 1.81e+03 1.31e-10
6468 0.1916 0.999957 5.11e-06 0.999979 2.55e-06 1.67e+03 1.16e-10
6659 0.1861 0.999960 4.59e-06 0.999980 2.29e-06 1.55e+03 1.04e-10
6855 0.1808 0.999962 4.12e-06 0.999981 2.06e-06 1.43e+03 9.24e-11
7057 0.1756 0.999964 3.70e-06 0.999982 1.85e-06 1.32e+03 8.23e-11
7265 0.1706 0.999966 3.33e-06 0.999983 1.66e-06 1.22e+03 7.33e-11
7479 0.1657 0.999968 2.99e-06 0.999984 1.49e-06 1.13e+03 6.52e-11
7700 0.1610 0.999970 2.68e-06 0.999985 1.34e-06 1.05e+03 5.80e-11
7927 0.1564 0.999971 2.41e-06 0.999986 1.20e-06 9.67e+02 5.16e-11
8160 0.1519 0.999973 2.16e-06 0.999986 1.08e-06 8.94e+02 4.59e-11
8401 0.1475 0.999975 1.94e-06 0.999987 9.70e-07 8.26e+02 4.09e-11
8648 0.1433 0.999976 1.74e-06 0.999988 8.70e-07 7.63e+02 3.63e-11
8903 0.1392 0.999977 1.56e-06 0.999989 7.81e-07 7.05e+02 3.23e-11
9166 0.1352 0.999979 1.40e-06 0.999989 7.01e-07 6.51e+02 2.87e-11
9436 0.1314 0.999980 1.26e-06 0.999990 6.28e-07 6.01e+02 2.55e-11
9714 0.1276 0.999981 1.13e-06 0.9999905 5.64e-07 5.55e+02 2.27e-11
10000 0.1240 0.999982 1.01e-06 0.9999910 5.06e-07 5.13e+02 2.02e-11