Optical constants of CZTS at 300K (source Adachi)
e(eV) λ(nm) ε1 ε2 n k α(cm-1) R
0.20 6198 6.972 0 2.640 0 0 0.203
0.25 4958 6.985 0 2.643 0 0 0.203
0.30 4132 7.000 0 2.646 0 0 0.204
0.35 3541 7.019 0 2.649 0 0 0.204
0.40 3099 7.040 0 2.653 0 0 0.205
0.45 2754 7.065 0 2.658 0 0 0.205
0.50 2479 7.093 0 2.663 0 0 0.206
0.55 2254 7.124 0 2.669 0 0 0.207
0.60 2066 7.159 0 2.676 0 0 0.208
0.65 1907 7.198 0 2.683 0 0 0.209
0.70 1771 7.234 0 2.690 0 0 0.210
0.75 1653 7.239 0 2.691 0 0 0.210
0.80 1549 7.256 0 2.694 0 0 0.210
0.85 1458 7.279 0 2.698 0 0 0.211
0.90 1377 7.321 0 2.706 0 0 0.212
0.95 1305 7.387 0 2.718 0 0 0.214
1.00 1240 7.473 0 2.734 0 0 0.216
1.05 1180 7.579 0 2.753 0 0 0.218
1.10 1127 7.698 0.019 2.775 0.003 3.84e+02 0.221
1.15 1078 7.825 0.084 2.797 0.015 1.75e+03 0.224
1.20 1033 7.939 0.180 2.818 0.032 3.88e+03 0.227
1.25 991.6 8.036 0.302 2.835 0.053 6.74e+03 0.229
1.30 953.5 8.112 0.451 2.849 0.079 1.04e+04 0.231
1.35 918.1 8.161 0.617 2.859 0.108 1.48e+04 0.233
1.40 885.4 8.179 0.786 2.863 0.137 1.95e+04 0.234
1.45 854.8 8.166 0.948 2.862 0.166 2.44e+04 0.234
1.50 826.3 8.129 1.093 2.858 0.191 2.91e+04 0.234
1.55 799.7 8.079 1.214 2.850 0.213 3.35e+04 0.233
1.60 774.7 8.020 1.310 2.841 0.231 3.74e+04 0.233
1.65 751.2 7.960 1.375 2.832 0.243 4.06e+04 0.232
1.70 729.1 7.905 1.433 2.823 0.254 4.38e+04 0.231
1.75 708.3 7.867 1.484 2.817 0.263 4.67e+04 0.230
1.80 688.6 7.843 1.530 2.814 0.272 4.96e+04 0.230
1.85 670.0 7.823 1.587 2.811 0.282 5.29e+04 0.230
1.90 652.4 7.811 1.644 2.810 0.293 5.63e+04 0.230
1.95 635.6 7.812 1.701 2.811 0.303 5.98e+04 0.231
2.00 619.8 7.811 1.761 2.812 0.313 6.35e+04 0.231
2.05 604.6 7.814 1.822 2.814 0.324 6.73e+04 0.232
2.10 590.2 7.824 1.895 2.817 0.336 7.16e+04 0.233
2.15 576.5 7.834 1.979 2.821 0.351 7.65e+04 0.234
2.20 563.4 7.838 2.068 2.824 0.366 8.17e+04 0.234
2.25 550.9 7.833 2.162 2.825 0.383 8.73e+04 0.235
2.30 538.9 7.816 2.263 2.824 0.401 9.34e+04 0.236
2.35 527.4 7.798 2.373 2.824 0.420 1.00e+05 0.237
2.40 516.5 7.773 2.489 2.823 0.441 1.07e+05 0.237
2.45 505.9 7.739 2.615 2.820 0.464 1.15e+05 0.238
2.50 495.8 7.708 2.731 2.818 0.485 1.23e+05 0.239
2.55 486.1 7.660 2.839 2.813 0.504 1.30e+05 0.239
2.60 476.7 7.607 2.929 2.807 0.522 1.38e+05 0.240
2.65 467.7 7.547 3.013 2.799 0.538 1.45e+05 0.240
2.70 459.1 7.476 3.086 2.790 0.553 1.51e+05 0.239
2.75 450.7 7.409 3.148 2.780 0.566 1.58e+05 0.239
2.80 442.7 7.338 3.191 2.769 0.576 1.64e+05 0.238
2.85 434.9 7.273 3.224 2.759 0.584 1.69e+05 0.237
2.90 427.4 7.204 3.243 2.748 0.590 1.73e+05 0.236
2.95 420.2 7.146 3.252 2.738 0.594 1.78e+05 0.236
3.00 413.2 7.089 3.251 2.728 0.596 1.81e+05 0.234
3.05 406.4 7.045 3.244 2.720 0.596 1.84e+05 0.234
3.10 399.8 7.019 3.227 2.715 0.594 1.87e+05 0.233
3.15 393.5 7.001 3.218 2.712 0.593 1.90e+05 0.232
3.20 387.3 6.998 3.203 2.711 0.591 1.92e+05 0.232
3.25 381.4 6.992 3.188 2.709 0.588 1.94e+05 0.232
3.30 375.6 7.000 3.175 2.710 0.586 1.96e+05 0.232
3.35 370.0 7.015 3.172 2.712 0.585 1.99e+05 0.232
3.40 364.6 7.048 3.175 2.718 0.584 2.01e+05 0.232
3.45 359.3 7.085 3.197 2.726 0.587 2.05e+05 0.234
3.50 354.1 7.130 3.228 2.735 0.590 2.09e+05 0.235
3.55 349.2 7.184 3.268 2.746 0.595 2.14e+05 0.236
3.60 344.3 7.253 3.309 2.759 0.600 2.19e+05 0.238
3.65 339.6 7.334 3.370 2.775 0.607 2.25e+05 0.241
3.70 335.0 7.408 3.455 2.791 0.619 2.32e+05 0.243
3.75 330.5 7.482 3.571 2.808 0.636 2.42e+05 0.246
3.80 326.2 7.540 3.712 2.823 0.657 2.53e+05 0.250
3.85 321.9 7.591 3.876 2.838 0.683 2.67e+05 0.253
3.90 317.8 7.615 4.059 2.850 0.712 2.82e+05 0.256
3.95 313.8 7.620 4.256 2.859 0.744 2.98e+05 0.260
4.00 309.9 7.599 4.460 2.865 0.779 3.16e+05 0.263
4.05 306.0 7.558 4.670 2.867 0.814 3.34e+05 0.266
4.10 302.3 7.504 4.868 2.868 0.849 3.53e+05 0.268
4.15 298.7 7.430 5.061 2.865 0.883 3.72e+05 0.271
4.20 295.1 7.343 5.233 2.860 0.915 3.90e+05 0.273
4.25 291.6 7.238 5.385 2.851 0.944 4.07e+05 0.275
4.30 288.3 7.128 5.527 2.841 0.973 4.24e+05 0.276
4.35 284.9 7.002 5.663 2.829 1.001 4.41e+05 0.278
4.40 281.7 6.881 5.790 2.817 1.028 4.58e+05 0.279
4.45 278.5 6.746 5.922 2.804 1.056 4.76e+05 0.280
4.50 275.4 6.597 6.061 2.789 1.087 4.96e+05 0.282
4.55 272.4 6.434 6.198 2.772 1.118 5.16e+05 0.284
4.60 269.5 6.276 6.325 2.756 1.148 5.35e+05 0.285
4.65 266.6 6.125 6.433 2.739 1.174 5.54e+05 0.287
4.70 263.7 5.965 6.531 2.721 1.200 5.72e+05 0.288
4.75 260.9 5.805 6.623 2.703 1.225 5.90e+05 0.289
4.80 258.2 5.647 6.702 2.684 1.248 6.08e+05 0.290
4.85 255.6 5.491 6.771 2.665 1.270 6.25e+05 0.292
4.90 253.0 5.326 6.832 2.645 1.292 6.42e+05 0.292
4.95 250.4 5.154 6.880 2.622 1.312 6.58e+05 0.293
5.00 247.9 4.974 6.919 2.598 1.332 6.75e+05 0.294
5.05 245.4 4.786 6.954 2.572 1.352 6.92e+05 0.295
5.10 243.0 4.599 6.988 2.546 1.372 7.10e+05 0.296
5.15 240.7 4.414 7.019 2.521 1.392 7.27e+05 0.297
5.20 238.4 4.238 7.043 2.496 1.411 7.44e+05 0.298
5.25 236.1 4.071 7.059 2.472 1.428 7.60e+05 0.298
5.30 233.9 3.906 7.067 2.448 1.444 7.76e+05 0.299
5.35 231.7 3.743 7.058 2.422 1.457 7.90e+05 0.300
5.40 229.5 3.578 7.041 2.395 1.470 8.05e+05 0.300
5.45 227.4 3.419 7.004 2.368 1.479 8.17e+05 0.300
5.50 225.4 3.260 6.963 2.340 1.488 8.30e+05 0.300
5.55 223.3 3.107 6.907 2.311 1.494 8.41e+05 0.299
5.60 221.3 2.972 6.840 2.284 1.498 8.50e+05 0.299
5.65 219.4 2.847 6.758 2.256 1.498 8.58e+05 0.297
5.70 217.5 2.726 6.665 2.228 1.496 8.64e+05 0.296
5.75 215.6 2.610 6.579 2.201 1.495 8.71e+05 0.295
5.80 213.7 2.514 6.494 2.177 1.492 8.77e+05 0.293
5.85 211.9 2.422 6.408 2.153 1.488 8.83e+05 0.292
5.90 210.1 2.341 6.336 2.133 1.486 8.89e+05 0.290
5.95 208.3 2.269 6.280 2.115 1.485 8.96e+05 0.290
6.00 206.6 2.211 6.240 2.101 1.485 9.03e+05 0.289
6.05 204.9 2.144 6.208 2.087 1.487 9.12e+05 0.289
6.10 203.2 2.052 6.179 2.069 1.493 9.23e+05 0.289
6.15 201.5 1.942 6.146 2.048 1.501 9.36e+05 0.290
6.20 199.9 1.813 6.104 2.022 1.509 9.49e+05 0.291
6.25 198.3 1.677 6.060 1.996 1.518 9.62e+05 0.292
6.30 196.7 1.537 6.010 1.967 1.527 9.76e+05 0.293
6.35 195.2 1.404 5.956 1.939 1.535 9.88e+05 0.295
6.40 193.7 1.272 5.907 1.912 1.544 1.00e+06 0.296
6.45 192.2 1.159 5.856 1.888 1.551 1.01e+06 0.297
30.00 41.32 0.6725 2.07e-01 0.8295 1.25e-01 3.79e+05 0.0133
30.88 40.13 0.6965 1.90e-01 0.8422 1.13e-01 3.53e+05 0.0110
31.79 38.98 0.7181 1.76e-01 0.8536 1.03e-01 3.32e+05 9.29e-03
32.73 37.87 0.7388 1.63e-01 0.8647 9.45e-02 3.14e+05 7.81e-03
33.70 36.78 0.7584 1.53e-01 0.8752 8.72e-02 2.98e+05 6.58e-03
34.69 35.73 0.7771 1.43e-01 0.8853 8.09e-02 2.84e+05 5.54e-03
35.71 34.71 0.7951 1.35e-01 0.8949 7.55e-02 2.73e+05 4.66e-03
36.76 33.72 0.8126 1.28e-01 0.9042 7.10e-02 2.65e+05 3.91e-03
37.85 32.75 0.8290 1.24e-01 0.9130 6.79e-02 2.61e+05 3.32e-03
38.96 31.81 0.8436 1.20e-01 0.9208 6.54e-02 2.58e+05 2.86e-03
40.11 30.90 0.8570 1.18e-01 0.9279 6.34e-02 2.58e+05 2.48e-03
41.29 30.02 0.8695 1.16e-01 0.9345 6.20e-02 2.59e+05 2.17e-03
42.51 29.16 0.8806 1.15e-01 0.9404 6.13e-02 2.64e+05 1.94e-03
43.76 28.32 0.8900 1.15e-01 0.9453 6.08e-02 2.70e+05 1.77e-03
45.05 27.51 0.8977 1.15e-01 0.9494 6.05e-02 2.77e+05 1.64e-03
46.38 26.72 0.9044 1.15e-01 0.9529 6.02e-02 2.83e+05 1.53e-03
47.75 25.96 0.9102 1.15e-01 0.9559 5.99e-02 2.90e+05 1.45e-03
49.15 25.22 0.9150 1.14e-01 0.9584 5.97e-02 2.97e+05 1.38e-03
50.60 24.49 0.9190 1.14e-01 0.9605 5.94e-02 3.04e+05 1.32e-03
52.09 23.79 0.9221 1.13e-01 0.9621 5.90e-02 3.11e+05 1.28e-03
53.63 23.11 0.9244 1.13e-01 0.9632 5.84e-02 3.18e+05 1.24e-03
55.21 22.45 0.9263 1.11e-01 0.9642 5.76e-02 3.23e+05 1.19e-03
56.84 21.81 0.9280 1.10e-01 0.9650 5.68e-02 3.27e+05 1.15e-03
58.51 21.18 0.9286 1.08e-01 0.9653 5.60e-02 3.32e+05 1.12e-03
60.24 20.58 0.9290 1.05e-01 0.9654 5.43e-02 3.32e+05 1.07e-03
62.01 19.99 0.9302 1.02e-01 0.9659 5.26e-02 3.31e+05 1.02e-03
63.84 19.42 0.9314 9.85e-02 0.9664 5.10e-02 3.30e+05 9.63e-04
65.72 18.86 0.9324 9.53e-02 0.9669 4.93e-02 3.28e+05 9.10e-04
67.66 18.32 0.9335 9.21e-02 0.9674 4.76e-02 3.27e+05 8.60e-04
69.65 17.80 0.9345 8.89e-02 0.9678 4.59e-02 3.24e+05 8.12e-04
71.71 17.29 0.9354 8.56e-02 0.9681 4.42e-02 3.21e+05 7.66e-04
73.82 16.79 0.9363 8.21e-02 0.9685 4.24e-02 3.17e+05 7.19e-04
75.99 16.31 0.9372 7.87e-02 0.9689 4.06e-02 3.13e+05 6.74e-04
78.23 15.84 0.9382 7.51e-02 0.9694 3.88e-02 3.07e+05 6.29e-04
80.54 15.39 0.9392 7.18e-02 0.9698 3.70e-02 3.02e+05 5.87e-04
82.91 14.95 0.9403 6.79e-02 0.9703 3.50e-02 2.94e+05 5.43e-04
85.36 14.52 0.9417 6.44e-02 0.9710 3.32e-02 2.87e+05 5.00e-04
87.87 14.11 0.9431 6.11e-02 0.9717 3.15e-02 2.80e+05 4.61e-04
90.46 13.70 0.9444 5.79e-02 0.9722 2.98e-02 2.73e+05 4.26e-04
93.13 13.31 0.9458 5.46e-02 0.9729 2.80e-02 2.65e+05 3.90e-04
95.87 12.93 0.9473 5.15e-02 0.9737 2.64e-02 2.57e+05 3.57e-04
98.70 12.56 0.9488 4.86e-02 0.9744 2.50e-02 2.50e+05 3.28e-04
101.6 12.20 0.9499 4.59e-02 0.9749 2.35e-02 2.43e+05 3.03e-04
104.6 11.85 0.9509 4.25e-02 0.9754 2.18e-02 2.31e+05 2.77e-04
107.7 11.51 0.9527 3.90e-02 0.9763 2.00e-02 2.18e+05 2.47e-04
110.9 11.18 0.9548 3.59e-02 0.9773 1.84e-02 2.07e+05 2.18e-04
114.1 10.86 0.9569 3.32e-02 0.9784 1.70e-02 1.97e+05 1.93e-04
117.5 10.55 0.9591 3.08e-02 0.9795 1.57e-02 1.87e+05 1.71e-04
121.0 10.25 0.9611 2.85e-02 0.9805 1.46e-02 1.78e+05 1.51e-04
124.5 9.955 0.9633 2.64e-02 0.9816 1.34e-02 1.69e+05 1.33e-04
128.2 9.670 0.9655 2.43e-02 0.9827 1.24e-02 1.61e+05 1.16e-04
132.0 9.393 0.9677 2.25e-02 0.9838 1.15e-02 1.53e+05 1.00e-04
135.9 9.124 0.9701 2.09e-02 0.9850 1.06e-02 1.46e+05 8.60e-05
139.9 8.863 0.9724 1.97e-02 0.9862 9.99e-03 1.42e+05 7.39e-05
144.0 8.609 0.9745 1.87e-02 0.9872 9.45e-03 1.38e+05 6.41e-05
148.2 8.362 0.9765 1.73e-02 0.9882 8.78e-03 1.32e+05 5.45e-05
152.6 8.123 0.9792 1.61e-02 0.9896 8.13e-03 1.26e+05 4.41e-05
157.1 7.891 0.9828 1.51e-02 0.9914 7.60e-03 1.21e+05 3.33e-05
161.7 7.665 0.9951 1.42e-02 0.9976 7.13e-03 1.17e+05 1.42e-05
166.5 7.445 0.9852 2.52e-02 0.9927 1.27e-02 2.14e+05 5.41e-05
171.4 7.232 0.9828 2.37e-02 0.9914 1.20e-02 2.08e+05 5.47e-05
176.4 7.025 0.9819 2.23e-02 0.9910 1.13e-02 2.01e+05 5.26e-05
181.6 6.824 0.9816 2.10e-02 0.9908 1.06e-02 1.95e+05 4.97e-05
187.0 6.629 0.9815 1.97e-02 0.9908 9.95e-03 1.89e+05 4.65e-05
192.5 6.439 0.9817 1.85e-02 0.9908 9.33e-03 1.82e+05 4.31e-05
198.2 6.254 0.9820 1.73e-02 0.9910 8.74e-03 1.76e+05 3.98e-05
204.0 6.075 0.9823 1.62e-02 0.9912 8.17e-03 1.69e+05 3.65e-05
210.0 5.901 0.9828 1.52e-02 0.9914 7.64e-03 1.63e+05 3.34e-05
216.2 5.733 0.9833 1.42e-02 0.9917 7.16e-03 1.57e+05 3.05e-05
222.6 5.568 0.9839 1.33e-02 0.9919 6.72e-03 1.52e+05 2.78e-05
229.2 5.409 0.9844 1.25e-02 0.9922 6.32e-03 1.47e+05 2.54e-05
235.9 5.254 0.9849 1.18e-02 0.9925 5.94e-03 1.42e+05 2.32e-05
242.9 5.104 0.9854 1.11e-02 0.9927 5.58e-03 1.37e+05 2.12e-05
250.0 4.958 0.9859 1.04e-02 0.9930 5.24e-03 1.33e+05 1.94e-05
257.4 4.816 0.9864 9.77e-03 0.9932 4.92e-03 1.28e+05 1.77e-05
265.0 4.678 0.9869 9.18e-03 0.9934 4.62e-03 1.24e+05 1.62e-05
272.8 4.544 0.9873 8.62e-03 0.9937 4.34e-03 1.20e+05 1.49e-05
280.8 4.414 0.9877 8.03e-03 0.9938 4.04e-03 1.15e+05 1.36e-05
289.1 4.287 0.9881 7.43e-03 0.9941 3.74e-03 1.10e+05 1.24e-05
297.6 4.165 0.9886 6.87e-03 0.9943 3.46e-03 1.04e+05 1.12e-05
306.4 4.046 0.9891 6.35e-03 0.9945 3.19e-03 9.91e+04 1.01e-05
315.4 3.930 0.9895 5.86e-03 0.9948 2.94e-03 9.41e+04 9.10e-06
324.7 3.817 0.9900 5.40e-03 0.9950 2.71e-03 8.94e+04 8.18e-06
334.3 3.708 0.9904 4.98e-03 0.9952 2.50e-03 8.48e+04 7.34e-06
344.1 3.602 0.9909 4.59e-03 0.9954 2.31e-03 8.05e+04 6.58e-06
354.3 3.499 0.9913 4.23e-03 0.9956 2.12e-03 7.63e+04 5.89e-06
364.7 3.399 0.9917 3.90e-03 0.9959 1.96e-03 7.24e+04 5.27e-06
375.5 3.301 0.9921 3.59e-03 0.9961 1.80e-03 6.86e+04 4.71e-06
386.5 3.207 0.9925 3.30e-03 0.9963 1.66e-03 6.50e+04 4.21e-06
397.9 3.115 0.9929 3.03e-03 0.9964 1.52e-03 6.13e+04 3.75e-06
409.7 3.026 0.9933 2.77e-03 0.9966 1.39e-03 5.78e+04 3.34e-06
421.7 2.939 0.9936 2.54e-03 0.9968 1.27e-03 5.44e+04 2.95e-06
434.2 2.855 0.9940 2.32e-03 0.9970 1.16e-03 5.12e+04 2.61e-06
447.0 2.773 0.9943 2.12e-03 0.9972 1.06e-03 4.82e+04 2.29e-06
460.1 2.694 0.9947 1.94e-03 0.9973 9.74e-04 4.54e+04 2.00e-06
473.7 2.617 0.9951 1.79e-03 0.9975 8.97e-04 4.31e+04 1.74e-06
487.6 2.542 0.9954 1.65e-03 0.9977 8.28e-04 4.09e+04 1.49e-06
502.0 2.469 0.9958 1.64e-03 0.9979 8.20e-04 4.18e+04 1.28e-06
516.8 2.398 0.9961 1.69e-03 0.9980 8.47e-04 4.44e+04 1.14e-06
532.0 2.330 0.9962 1.74e-03 0.9981 8.70e-04 4.69e+04 1.10e-06
547.7 2.263 0.9963 1.68e-03 0.9981 8.39e-04 4.66e+04 1.04e-06
563.9 2.198 0.9964 1.58e-03 0.9982 7.93e-04 4.54e+04 9.60e-07
580.5 2.135 0.9966 1.48e-03 0.9983 7.40e-04 4.35e+04 8.83e-07
597.6 2.074 0.9967 1.37e-03 0.9983 6.86e-04 4.16e+04 8.03e-07
615.2 2.015 0.9968 1.26e-03 0.9984 6.32e-04 3.94e+04 7.27e-07
633.3 1.957 0.9970 1.16e-03 0.9985 5.80e-04 3.73e+04 6.53e-07
652.0 1.901 0.9971 1.06e-03 0.9986 5.32e-04 3.52e+04 5.84e-07
671.2 1.847 0.9973 9.77e-04 0.9986 4.89e-04 3.33e+04 5.20e-07
691.0 1.794 0.9974 8.97e-04 0.9987 4.49e-04 3.15e+04 4.61e-07
711.4 1.742 0.9976 8.33e-04 0.9988 4.17e-04 3.01e+04 4.01e-07
732.3 1.693 0.9977 8.08e-04 0.9989 4.05e-04 3.00e+04 3.58e-07
753.9 1.644 0.9979 7.70e-04 0.9989 3.86e-04 2.95e+04 3.27e-07
776.1 1.597 0.9980 7.15e-04 0.9990 3.58e-04 2.82e+04 2.94e-07
799.0 1.551 0.9981 6.57e-04 0.99903 3.29e-04 2.67e+04 2.62e-07
822.5 1.507 0.9982 6.04e-04 0.99909 3.02e-04 2.52e+04 2.32e-07
846.8 1.464 0.9983 5.53e-04 0.99914 2.77e-04 2.37e+04 2.03e-07
871.7 1.422 0.9984 5.05e-04 0.99920 2.53e-04 2.23e+04 1.74e-07
897.4 1.381 0.9985 4.61e-04 0.99927 2.31e-04 2.10e+04 1.45e-07
923.9 1.342 0.9988 4.21e-04 0.99940 2.11e-04 1.97e+04 1.00e-07
951.1 1.303 0.9987 6.85e-04 0.99937 3.43e-04 3.30e+04 1.28e-07
979.1 1.266 0.9987 6.18e-04 0.99936 3.09e-04 3.07e+04 1.26e-07
1008 1.2297 0.9988 5.51e-04 0.99940 2.76e-04 2.82e+04 1.10e-07
1038 1.1945 0.9988 6.15e-04 0.99941 3.08e-04 3.24e+04 1.10e-07
1068 1.1603 0.9988 5.62e-04 0.99941 2.81e-04 3.05e+04 1.06e-07
1100 1.1270 0.9989 5.16e-04 0.99943 2.58e-04 2.88e+04 9.86e-08
1132 1.0948 0.9989 4.73e-04 0.99945 2.37e-04 2.72e+04 9.07e-08
1166 1.0634 0.9989 4.34e-04 0.99947 2.17e-04 2.57e+04 8.29e-08
1200 1.0330 0.9990 3.98e-04 0.99949 1.99e-04 2.42e+04 7.56e-08
1235 1.0034 0.99902 3.65e-04 0.99951 1.83e-04 2.29e+04 6.88e-08
1272 0.9747 0.99906 3.33e-04 0.99953 1.67e-04 2.15e+04 6.26e-08
1309 0.9468 0.99910 3.01e-04 0.99955 1.51e-04 2.00e+04 5.65e-08
1348 0.9197 0.99914 2.73e-04 0.99957 1.36e-04 1.86e+04 5.08e-08
1387 0.8934 0.99918 2.47e-04 0.99959 1.23e-04 1.74e+04 4.56e-08
1428 0.8678 0.99922 2.23e-04 0.99961 1.12e-04 1.62e+04 4.09e-08
1470 0.8429 0.99926 2.02e-04 0.99963 1.01e-04 1.51e+04 3.66e-08
1514 0.8188 0.99930 1.83e-04 0.99965 9.15e-05 1.40e+04 3.27e-08
1558 0.7954 0.99934 1.66e-04 0.99967 8.28e-05 1.31e+04 2.92e-08
1604 0.7726 0.99937 1.50e-04 0.99969 7.49e-05 1.22e+04 2.60e-08
1652 0.7505 0.99941 1.36e-04 0.99970 6.78e-05 1.14e+04 2.32e-08
1700 0.7290 0.99944 1.23e-04 0.99972 6.14e-05 1.06e+04 2.07e-08
1750 0.7081 0.99947 1.11e-04 0.99973 5.55e-05 9.85e+03 1.84e-08
1802 0.6879 0.99950 1.00e-04 0.99975 5.01e-05 9.16e+03 1.64e-08
1855 0.6682 0.99953 9.05e-05 0.99976 4.53e-05 8.52e+03 1.45e-08
1910 0.6490 0.99955 8.18e-05 0.99978 4.09e-05 7.92e+03 1.29e-08
1966 0.6305 0.99958 7.39e-05 0.99979 3.69e-05 7.36e+03 1.15e-08
2024 0.6124 0.99960 6.68e-05 0.99980 3.34e-05 6.85e+03 1.02e-08
2084 0.5949 0.99963 6.02e-05 0.99981 3.01e-05 6.36e+03 9.00e-09
2145 0.5778 0.99965 5.43e-05 0.99982 2.72e-05 5.91e+03 7.96e-09
2208 0.5613 0.99967 4.90e-05 0.99983 2.45e-05 5.49e+03 7.02e-09
2273 0.5452 0.99969 4.42e-05 0.99984 2.21e-05 5.09e+03 6.17e-09
2340 0.5296 0.99971 3.98e-05 0.99985 1.99e-05 4.73e+03 5.39e-09
2409 0.5145 0.99973 3.59e-05 0.99987 1.79e-05 4.38e+03 4.63e-09
2480 0.4997 0.99977 5.30e-05 0.99989 2.65e-05 6.66e+03 3.37e-09
2553 0.4854 0.99976 4.79e-05 0.99988 2.39e-05 6.19e+03 3.84e-09
2629 0.4715 0.99977 4.32e-05 0.99988 2.16e-05 5.76e+03 3.53e-09
2706 0.4580 0.99978 3.90e-05 0.99989 1.95e-05 5.35e+03 3.20e-09
2786 0.4449 0.99979 3.51e-05 0.99989 1.76e-05 4.96e+03 2.88e-09
2868 0.4322 0.99980 3.17e-05 0.99990 1.58e-05 4.61e+03 2.59e-09
2953 0.4198 0.99981 2.85e-05 0.999905 1.43e-05 4.27e+03 2.32e-09
3040 0.4078 0.99982 2.57e-05 0.999910 1.29e-05 3.96e+03 2.07e-09
3129 0.3961 0.99983 2.31e-05 0.999915 1.16e-05 3.67e+03 1.84e-09
3221 0.3848 0.99984 2.08e-05 0.999920 1.04e-05 3.40e+03 1.64e-09
3316 0.3738 0.99985 1.87e-05 0.999924 9.37e-06 3.15e+03 1.46e-09
3414 0.3631 0.99986 1.69e-05 0.999928 8.43e-06 2.92e+03 1.30e-09
3515 0.3527 0.99987 1.52e-05 0.999933 7.58e-06 2.70e+03 1.15e-09
3618 0.3426 0.99987 1.36e-05 0.999937 6.81e-06 2.50e+03 1.02e-09
3725 0.3328 0.99988 1.22e-05 0.999940 6.12e-06 2.31e+03 8.95e-10
3835 0.3232 0.99989 1.10e-05 0.999944 5.49e-06 2.14e+03 7.80e-10
3948 0.3140 0.99990 1.40e-05 0.999950 6.99e-06 2.80e+03 6.28e-10
4064 0.3050 0.999901 1.26e-05 0.999950 6.29e-06 2.59e+03 6.23e-10
4184 0.2963 0.999907 1.31e-05 0.999953 6.55e-06 2.78e+03 5.56e-10
4307 0.2878 0.999910 1.18e-05 0.999955 5.90e-06 2.58e+03 5.11e-10
4434 0.2795 0.999915 1.06e-05 0.999958 5.31e-06 2.39e+03 4.57e-10
4565 0.2715 0.999919 1.02e-05 0.999960 5.10e-06 2.36e+03 4.15e-10
4699 0.2638 0.999923 9.20e-06 0.999962 4.60e-06 2.19e+03 3.73e-10
4838 0.2562 0.999927 8.30e-06 0.999964 4.15e-06 2.03e+03 3.35e-10
4980 0.2489 0.999931 7.48e-06 0.999966 3.74e-06 1.89e+03 3.00e-10
5127 0.2418 0.999935 6.74e-06 0.999967 3.37e-06 1.75e+03 2.68e-10
5278 0.2348 0.999938 6.07e-06 0.999969 3.04e-06 1.62e+03 2.39e-10
5434 0.2281 0.999942 5.47e-06 0.999971 2.73e-06 1.51e+03 2.13e-10
5594 0.2216 0.999945 4.92e-06 0.999973 2.46e-06 1.40e+03 1.90e-10
5759 0.2152 0.999948 4.43e-06 0.999974 2.21e-06 1.29e+03 1.69e-10
5928 0.2091 0.999951 3.98e-06 0.999976 1.99e-06 1.20e+03 1.51e-10
6103 0.2031 0.999954 3.58e-06 0.999977 1.79e-06 1.11e+03 1.34e-10
6283 0.1973 0.999956 3.22e-06 0.999978 1.61e-06 1.03e+03 1.20e-10
6468 0.1916 0.999959 2.89e-06 0.999979 1.45e-06 9.49e+02 1.06e-10
6659 0.1861 0.999961 2.60e-06 0.999981 1.30e-06 8.77e+02 9.46e-11
6855 0.1808 0.999963 2.33e-06 0.999982 1.17e-06 8.11e+02 8.41e-11
7057 0.1756 0.999965 2.10e-06 0.999983 1.05e-06 7.50e+02 7.47e-11
7265 0.1706 0.999967 1.88e-06 0.999984 9.41e-07 6.93e+02 6.63e-11
7479 0.1657 0.999969 1.69e-06 0.999985 8.44e-07 6.40e+02 5.89e-11
7700 0.1610 0.999971 1.51e-06 0.999986 7.57e-07 5.91e+02 5.22e-11
7927 0.1564 0.999973 1.36e-06 0.999986 6.79e-07 5.46e+02 4.63e-11
8160 0.1519 0.999974 1.22e-06 0.999987 6.09e-07 5.04e+02 4.10e-11
8401 0.1475 0.999976 1.09e-06 0.999988 5.46e-07 4.65e+02 3.62e-11
8648 0.1433 0.999977 9.79e-07 0.999989 4.90e-07 4.29e+02 3.18e-11
8903 0.1392 0.999980 8.77e-07 0.999990 4.39e-07 3.96e+02 2.61e-11
9166 0.1352 0.999980 1.46e-06 0.9999900 7.28e-07 6.76e+02 2.49e-11
9436 0.1314 0.999981 1.31e-06 0.9999905 6.55e-07 6.27e+02 2.25e-11
9714 0.1276 0.999982 1.49e-06 0.9999912 7.43e-07 7.32e+02 1.94e-11
10000 0.1240 0.999983 1.34e-06 0.9999915 6.69e-07 6.78e+02 1.83e-11